PE IR                   SPECTRUM    ASCII       PEDS        1.60        
  -1
1012D~1.ASC
22/04/14
10:11:32.00
22/04/14
10:11:32.00
Admin

650.000000
4









SPECTRUM ONE,CPU32 MAIN 00.02.6000 25-JUNE-2003 12:00:00
MIR TGS
MIR
OPTKBR
68128
0.200000

4.000000
STRONG
RATIO
SPECTRUM
MAGNITUDE
UNIVERSAL ATR
DOUBLE

COMBINED


0


#HDR
-1
-1
#GR
CM-1
%T
0.00002384185791015625
0.0
4000.000000
-1.000000
3351
8
100.064297
34.965037
#DATA
4000.000000	99.657119  
3999.000000	99.654129  
3998.000000	99.651004  
3997.000000	99.684715  
3996.000000	99.732221  
3995.000000	99.760371  
3994.000000	99.755537  
3993.000000	99.730911  
3992.000000	99.708579  
3991.000000	99.697983  
3990.000000	99.690989  
3989.000000	99.674743  
3988.000000	99.647302  
3987.000000	99.621615  
3986.000000	99.614725  
3985.000000	99.633047  
3984.000000	99.667862  
3983.000000	99.703775  
3982.000000	99.729338  
3981.000000	99.739865  
3980.000000	99.735375  
3979.000000	99.720953  
3978.000000	99.708055  
3977.000000	99.710013  
3976.000000	99.731870  
3975.000000	99.763937  
3974.000000	99.787810  
3973.000000	99.791451  
3972.000000	99.780475  
3971.000000	99.773764  
3970.000000	99.785598  
3969.000000	99.810829  
3968.000000	99.829426  
3967.000000	99.827107  
3966.000000	99.809542  
3965.000000	99.795266  
3964.000000	99.796632  
3963.000000	99.809553  
3962.000000	99.819739  
3961.000000	99.816039  
3960.000000	99.798130  
3959.000000	99.774734  
3958.000000	99.757463  
3957.000000	99.753233  
3956.000000	99.760346  
3955.000000	99.770854  
3954.000000	99.777253  
3953.000000	99.777640  
3952.000000	99.776018  
3951.000000	99.779717  
3950.000000	99.793572  
3949.000000	99.814593  
3948.000000	99.834753  
3947.000000	99.850997  
3946.000000	99.868049  
3945.000000	99.889256  
3944.000000	99.909479  
3943.000000	99.921370  
3942.000000	99.926615  
3941.000000	99.932389  
3940.000000	99.935494  
3939.000000	99.920366  
3938.000000	99.878774  
3937.000000	99.823835  
3936.000000	99.780706  
3935.000000	99.764656  
3934.000000	99.770422  
3933.000000	99.781448  
3932.000000	99.786322  
3931.000000	99.786902  
3930.000000	99.790647  
3929.000000	99.798355  
3928.000000	99.802768  
3927.000000	99.796715  
3926.000000	99.782200  
3925.000000	99.771758  
3924.000000	99.779347  
3923.000000	99.807674  
3922.000000	99.845607  
3921.000000	99.881196  
3920.000000	99.912361  
3919.000000	99.937677  
3918.000000	99.944960  
3917.000000	99.922433  
3916.000000	99.880169  
3915.000000	99.845924  
3914.000000	99.836809  
3913.000000	99.843361  
3912.000000	99.844517  
3911.000000	99.830064  
3910.000000	99.811478  
3909.000000	99.808689  
3908.000000	99.831162  
3907.000000	99.866994  
3906.000000	99.888204  
3905.000000	99.871085  
3904.000000	99.821710  
3903.000000	99.779989  
3902.000000	99.783335  
3901.000000	99.826206  
3900.000000	99.868310  
3899.000000	99.881144  
3898.000000	99.872526  
3897.000000	99.864357  
3896.000000	99.865629  
3895.000000	99.873943  
3894.000000	99.889126  
3893.000000	99.907479  
3892.000000	99.914138  
3891.000000	99.898076  
3890.000000	99.878927  
3889.000000	99.882294  
3888.000000	99.904467  
3887.000000	99.920550  
3886.000000	99.909159  
3885.000000	99.876794  
3884.000000	99.862223  
3883.000000	99.888236  
3882.000000	99.933573  
3881.000000	99.958838  
3880.000000	99.943679  
3879.000000	99.910247  
3878.000000	99.897703  
3877.000000	99.914056  
3876.000000	99.935236  
3875.000000	99.933136  
3874.000000	99.908914  
3873.000000	99.899701  
3872.000000	99.928724  
3871.000000	99.962468  
3870.000000	99.945947  
3869.000000	99.881553  
3868.000000	99.829364  
3867.000000	99.820307  
3866.000000	99.837810  
3865.000000	99.862922  
3864.000000	99.884832  
3863.000000	99.895185  
3862.000000	99.891637  
3861.000000	99.873939  
3860.000000	99.843330  
3859.000000	99.795425  
3858.000000	99.727604  
3857.000000	99.652509  
3856.000000	99.604617  
3855.000000	99.608303  
3854.000000	99.614615  
3853.000000	99.559865  
3852.000000	99.517628  
3851.000000	99.580236  
3850.000000	99.705099  
3849.000000	99.809889  
3848.000000	99.858785  
3847.000000	99.855997  
3846.000000	99.823400  
3845.000000	99.782184  
3844.000000	99.743094  
3843.000000	99.709889  
3842.000000	99.691493  
3841.000000	99.693679  
3840.000000	99.706580  
3839.000000	99.706121  
3838.000000	99.681053  
3837.000000	99.654517  
3836.000000	99.664217  
3835.000000	99.720491  
3834.000000	99.799147  
3833.000000	99.866925  
3832.000000	99.904303  
3831.000000	99.912579  
3830.000000	99.905446  
3829.000000	99.891567  
3828.000000	99.868211  
3827.000000	99.829928  
3826.000000	99.786405  
3825.000000	99.762497  
3824.000000	99.775061  
3823.000000	99.811906  
3822.000000	99.831571  
3821.000000	99.794815  
3820.000000	99.733095  
3819.000000	99.711508  
3818.000000	99.729823  
3817.000000	99.750371  
3816.000000	99.755597  
3815.000000	99.763936  
3814.000000	99.803488  
3813.000000	99.855853  
3812.000000	99.877190  
3811.000000	99.863202  
3810.000000	99.847769  
3809.000000	99.853441  
3808.000000	99.855647  
3807.000000	99.811336  
3806.000000	99.732468  
3805.000000	99.682269  
3804.000000	99.692518  
3803.000000	99.740846  
3802.000000	99.779492  
3801.000000	99.778482  
3800.000000	99.776989  
3799.000000	99.812651  
3798.000000	99.855364  
3797.000000	99.870325  
3796.000000	99.865913  
3795.000000	99.876339  
3794.000000	99.917696  
3793.000000	99.970082  
3792.000000	100.000527 
3791.000000	99.991711  
3790.000000	99.948904  
3789.000000	99.893632  
3788.000000	99.850949  
3787.000000	99.836135  
3786.000000	99.846237  
3785.000000	99.868215  
3784.000000	99.896978  
3783.000000	99.937406  
3782.000000	99.985666  
3781.000000	100.017792 
3780.000000	100.005963 
3779.000000	99.949939  
3778.000000	99.888593  
3777.000000	99.859977  
3776.000000	99.862213  
3775.000000	99.866430  
3774.000000	99.855513  
3773.000000	99.837108  
3772.000000	99.826719  
3771.000000	99.829557  
3770.000000	99.845107  
3769.000000	99.880688  
3768.000000	99.940173  
3767.000000	99.997623  
3766.000000	100.014811 
3765.000000	99.987787  
3764.000000	99.955103  
3763.000000	99.951348  
3762.000000	99.968746  
3761.000000	99.975761  
3760.000000	99.956578  
3759.000000	99.916877  
3758.000000	99.866319  
3757.000000	99.803576  
3756.000000	99.721076  
3755.000000	99.617072  
3754.000000	99.510190  
3753.000000	99.446609  
3752.000000	99.464165  
3751.000000	99.529639  
3750.000000	99.565902  
3749.000000	99.554971  
3748.000000	99.541696  
3747.000000	99.563827  
3746.000000	99.623732  
3745.000000	99.680933  
3744.000000	99.682957  
3743.000000	99.668018  
3742.000000	99.698029  
3741.000000	99.748357  
3740.000000	99.787080  
3739.000000	99.830331  
3738.000000	99.899450  
3737.000000	99.970539  
3736.000000	99.992875  
3735.000000	99.961500  
3734.000000	99.928114  
3733.000000	99.928179  
3732.000000	99.946487  
3731.000000	99.961347  
3730.000000	99.971609  
3729.000000	99.979883  
3728.000000	99.984027  
3727.000000	99.987360  
3726.000000	99.999543  
3725.000000	100.026219 
3724.000000	100.055123 
3723.000000	100.064297 
3722.000000	100.044739 
3721.000000	100.005138 
3720.000000	99.956300  
3719.000000	99.896579  
3718.000000	99.822909  
3717.000000	99.747519  
3716.000000	99.695734  
3715.000000	99.686975  
3714.000000	99.725326  
3713.000000	99.799518  
3712.000000	99.879069  
3711.000000	99.930860  
3710.000000	99.947346  
3709.000000	99.936633  
3708.000000	99.903720  
3707.000000	99.858836  
3706.000000	99.822992  
3705.000000	99.812436  
3704.000000	99.825072  
3703.000000	99.840909  
3702.000000	99.840169  
3701.000000	99.826197  
3700.000000	99.824215  
3699.000000	99.845518  
3698.000000	99.869183  
3697.000000	99.867245  
3696.000000	99.834745  
3695.000000	99.787857  
3694.000000	99.736871  
3693.000000	99.676132  
3692.000000	99.600944  
3691.000000	99.525937  
3690.000000	99.479327  
3689.000000	99.478834  
3688.000000	99.525711  
3687.000000	99.609612  
3686.000000	99.699133  
3685.000000	99.751829  
3684.000000	99.753156  
3683.000000	99.727970  
3682.000000	99.705165  
3681.000000	99.678366  
3680.000000	99.619020  
3679.000000	99.531281  
3678.000000	99.467810  
3677.000000	99.479201  
3676.000000	99.532995  
3675.000000	99.546516  
3674.000000	99.521138  
3673.000000	99.495238  
3672.000000	99.460011  
3671.000000	99.410329  
3670.000000	99.364341  
3669.000000	99.352159  
3668.000000	99.401122  
3667.000000	99.491945  
3666.000000	99.578312  
3665.000000	99.636459  
3664.000000	99.667987  
3663.000000	99.679770  
3662.000000	99.675289  
3661.000000	99.658498  
3660.000000	99.635397  
3659.000000	99.607818  
3658.000000	99.567130  
3657.000000	99.505833  
3656.000000	99.434323  
3655.000000	99.382884  
3654.000000	99.363622  
3653.000000	99.349385  
3652.000000	99.316445  
3651.000000	99.282223  
3650.000000	99.276223  
3649.000000	99.294565  
3648.000000	99.313941  
3647.000000	99.322064  
3646.000000	99.320626  
3645.000000	99.318760  
3644.000000	99.324379  
3643.000000	99.336652  
3642.000000	99.347080  
3641.000000	99.347330  
3640.000000	99.335712  
3639.000000	99.317145  
3638.000000	99.302926  
3637.000000	99.304002  
3636.000000	99.310986  
3635.000000	99.288820  
3634.000000	99.208839  
3633.000000	99.089183  
3632.000000	98.988072  
3631.000000	98.958626  
3630.000000	98.996299  
3629.000000	99.023362  
3628.000000	98.996543  
3627.000000	98.972368  
3626.000000	98.984541  
3625.000000	98.999045  
3624.000000	98.981841  
3623.000000	98.930058  
3622.000000	98.864614  
3621.000000	98.810329  
3620.000000	98.778081  
3619.000000	98.761115  
3618.000000	98.751673  
3617.000000	98.744063  
3616.000000	98.721932  
3615.000000	98.668420  
3614.000000	98.586921  
3613.000000	98.502552  
3612.000000	98.443564  
3611.000000	98.420039  
3610.000000	98.419720  
3609.000000	98.422481  
3608.000000	98.415129  
3607.000000	98.396336  
3606.000000	98.368214  
3605.000000	98.325381  
3604.000000	98.263335  
3603.000000	98.190864  
3602.000000	98.126727  
3601.000000	98.084979  
3600.000000	98.064218  
3599.000000	98.049269  
3598.000000	98.022899  
3597.000000	97.980988  
3596.000000	97.930456  
3595.000000	97.875660  
3594.000000	97.811712  
3593.000000	97.737154  
3592.000000	97.661160  
3591.000000	97.598087  
3590.000000	97.554307  
3589.000000	97.519025  
3588.000000	97.469272  
3587.000000	97.399179  
3586.000000	97.333661  
3585.000000	97.292041  
3584.000000	97.260863  
3583.000000	97.213945  
3582.000000	97.139740  
3581.000000	97.049786  
3580.000000	96.968284  
3579.000000	96.913158  
3578.000000	96.882116  
3577.000000	96.856473  
3576.000000	96.815427  
3575.000000	96.748207  
3574.000000	96.656520  
3573.000000	96.550450  
3572.000000	96.443954  
3571.000000	96.350579  
3570.000000	96.276731  
3569.000000	96.212699  
3568.000000	96.134014  
3567.000000	96.026168  
3566.000000	95.910039  
3565.000000	95.819474  
3564.000000	95.757945  
3563.000000	95.699756  
3562.000000	95.624076  
3561.000000	95.537693  
3560.000000	95.466622  
3559.000000	95.424852  
3558.000000	95.393935  
3557.000000	95.338750  
3556.000000	95.242273  
3555.000000	95.119562  
3554.000000	94.997549  
3553.000000	94.888038  
3552.000000	94.785642  
3551.000000	94.686075  
3550.000000	94.593479  
3549.000000	94.510923  
3548.000000	94.434193  
3547.000000	94.357166  
3546.000000	94.278772  
3545.000000	94.201873  
3544.000000	94.126259  
3543.000000	94.047084  
3542.000000	93.960376  
3541.000000	93.865204  
3540.000000	93.760478  
3539.000000	93.643797  
3538.000000	93.516613  
3537.000000	93.387606  
3536.000000	93.266536  
3535.000000	93.156390  
3534.000000	93.053742  
3533.000000	92.955677  
3532.000000	92.860155  
3531.000000	92.759974  
3530.000000	92.643338  
3529.000000	92.507980  
3528.000000	92.371270  
3527.000000	92.257468  
3526.000000	92.172390  
3525.000000	92.095690  
3524.000000	92.000088  
3523.000000	91.873752  
3522.000000	91.722312  
3521.000000	91.555353  
3520.000000	91.378595  
3519.000000	91.198002  
3518.000000	91.023367  
3517.000000	90.864336  
3516.000000	90.724974  
3515.000000	90.603359  
3514.000000	90.492967  
3513.000000	90.382843  
3512.000000	90.260059  
3511.000000	90.119038  
3510.000000	89.969217  
3509.000000	89.829964  
3508.000000	89.713907  
3507.000000	89.613859  
3506.000000	89.504443  
3505.000000	89.357870  
3504.000000	89.165459  
3503.000000	88.949616  
3502.000000	88.750376  
3501.000000	88.592054  
3500.000000	88.462828  
3499.000000	88.329880  
3498.000000	88.174189  
3497.000000	88.008808  
3496.000000	87.860729  
3495.000000	87.737302  
3494.000000	87.615244  
3493.000000	87.463688  
3492.000000	87.273868  
3491.000000	87.066079  
3490.000000	86.869996  
3489.000000	86.699275  
3488.000000	86.542873  
3487.000000	86.377948  
3486.000000	86.190022  
3485.000000	85.981560  
3484.000000	85.765945  
3483.000000	85.556995  
3482.000000	85.362941  
3481.000000	85.185451  
3480.000000	85.019550  
3479.000000	84.855216  
3478.000000	84.682618  
3477.000000	84.497248  
3476.000000	84.299914  
3475.000000	84.093734  
3474.000000	83.884568  
3473.000000	83.683437  
3472.000000	83.502343  
3471.000000	83.342276  
3470.000000	83.186361  
3469.000000	83.009906  
3468.000000	82.802356  
3467.000000	82.580191  
3466.000000	82.374788  
3465.000000	82.204852  
3464.000000	82.060126  
3463.000000	81.912846  
3462.000000	81.743858  
3461.000000	81.555831  
3460.000000	81.363639  
3459.000000	81.178249  
3458.000000	81.002393  
3457.000000	80.835392  
3456.000000	80.675108  
3455.000000	80.516456  
3454.000000	80.353529  
3453.000000	80.185542  
3452.000000	80.018120  
3451.000000	79.857658  
3450.000000	79.705670  
3449.000000	79.559181  
3448.000000	79.414233  
3447.000000	79.267643  
3446.000000	79.117776  
3445.000000	78.966486  
3444.000000	78.820505  
3443.000000	78.687790  
3442.000000	78.568706  
3441.000000	78.451797  
3440.000000	78.322269  
3439.000000	78.176326  
3438.000000	78.024928  
3437.000000	77.881116  
3436.000000	77.745937  
3435.000000	77.610028  
3434.000000	77.467201  
3433.000000	77.322552  
3432.000000	77.186951  
3431.000000	77.067346  
3430.000000	76.961848  
3429.000000	76.859229  
3428.000000	76.741893  
3427.000000	76.595534  
3426.000000	76.421640  
3425.000000	76.239259  
3424.000000	76.070953  
3423.000000	75.927566  
3422.000000	75.807325  
3421.000000	75.704540  
3420.000000	75.613071  
3419.000000	75.522724  
3418.000000	75.419360  
3417.000000	75.292208  
3416.000000	75.140681  
3415.000000	74.974505  
3414.000000	74.807537  
3413.000000	74.647316  
3412.000000	74.486996  
3411.000000	74.311140  
3410.000000	74.115782  
3409.000000	73.920593  
3408.000000	73.752937  
3407.000000	73.618428  
3406.000000	73.495068  
3405.000000	73.359446  
3404.000000	73.212562  
3403.000000	73.074625  
3402.000000	72.959163  
3401.000000	72.859355  
3400.000000	72.757819  
3399.000000	72.643215  
3398.000000	72.515987  
3397.000000	72.382436  
3396.000000	72.247137  
3395.000000	72.111309  
3394.000000	71.976195  
3393.000000	71.845315  
3392.000000	71.722410  
3391.000000	71.608792  
3390.000000	71.503963  
3389.000000	71.406539  
3388.000000	71.311660  
3387.000000	71.209079  
3386.000000	71.089020  
3385.000000	70.952791  
3384.000000	70.815252  
3383.000000	70.694275  
3382.000000	70.596334  
3381.000000	70.511056  
3380.000000	70.419061  
3379.000000	70.307617  
3378.000000	70.181404  
3377.000000	70.057523  
3376.000000	69.949377  
3375.000000	69.857149  
3374.000000	69.774073  
3373.000000	69.695728  
3372.000000	69.618119  
3371.000000	69.531298  
3370.000000	69.423895  
3369.000000	69.294798  
3368.000000	69.154956  
3367.000000	69.017250  
3366.000000	68.889629  
3365.000000	68.777855  
3364.000000	68.687504  
3363.000000	68.619167  
3362.000000	68.564814  
3361.000000	68.511768  
3360.000000	68.449511  
3359.000000	68.373476  
3358.000000	68.286127  
3357.000000	68.195189  
3356.000000	68.107620  
3355.000000	68.024409  
3354.000000	67.943680  
3353.000000	67.867974  
3352.000000	67.804332  
3351.000000	67.757258  
3350.000000	67.725013  
3349.000000	67.701450  
3348.000000	67.676534  
3347.000000	67.637140  
3346.000000	67.575951  
3345.000000	67.501486  
3344.000000	67.431920  
3343.000000	67.375426  
3342.000000	67.323178  
3341.000000	67.266069  
3340.000000	67.211519  
3339.000000	67.176087  
3338.000000	67.163884  
3337.000000	67.158333  
3336.000000	67.135097  
3335.000000	67.081248  
3334.000000	67.004546  
3333.000000	66.928153  
3332.000000	66.874381  
3331.000000	66.848086  
3330.000000	66.835079  
3329.000000	66.818825  
3328.000000	66.797624  
3327.000000	66.782743  
3326.000000	66.781012  
3325.000000	66.784134  
3324.000000	66.776730  
3323.000000	66.752578  
3322.000000	66.720529  
3321.000000	66.694328  
3320.000000	66.678215  
3319.000000	66.664333  
3318.000000	66.644215  
3317.000000	66.619433  
3316.000000	66.598440  
3315.000000	66.586125  
3314.000000	66.581338  
3313.000000	66.583257  
3312.000000	66.593536  
3311.000000	66.611062  
3310.000000	66.630539  
3309.000000	66.649278  
3308.000000	66.670716  
3307.000000	66.697783  
3306.000000	66.726317  
3305.000000	66.748447  
3304.000000	66.759878  
3303.000000	66.761576  
3302.000000	66.757939  
3301.000000	66.756283  
3300.000000	66.764149  
3299.000000	66.782602  
3298.000000	66.804268  
3297.000000	66.821893  
3296.000000	66.837473  
3295.000000	66.860058  
3294.000000	66.896740  
3293.000000	66.948684  
3292.000000	67.012117  
3291.000000	67.077572  
3290.000000	67.129960  
3289.000000	67.156757  
3288.000000	67.159566  
3287.000000	67.155499  
3286.000000	67.165399  
3285.000000	67.200583  
3284.000000	67.258859  
3283.000000	67.329388  
3282.000000	67.400939  
3281.000000	67.468142  
3280.000000	67.531503  
3279.000000	67.591964  
3278.000000	67.647460  
3277.000000	67.696376  
3276.000000	67.742393  
3275.000000	67.792594  
3274.000000	67.850678  
3273.000000	67.914141  
3272.000000	67.977656  
3271.000000	68.036999  
3270.000000	68.090411  
3269.000000	68.139512  
3268.000000	68.190154  
3267.000000	68.250495  
3266.000000	68.326254  
3265.000000	68.417091  
3264.000000	68.516311  
3263.000000	68.613573  
3262.000000	68.701012  
3261.000000	68.780690  
3260.000000	68.865644  
3259.000000	68.968863  
3258.000000	69.087881  
3257.000000	69.201381  
3256.000000	69.284572  
3255.000000	69.330349  
3254.000000	69.356505  
3253.000000	69.393199  
3252.000000	69.463336  
3251.000000	69.572097  
3250.000000	69.709252  
3249.000000	69.856811  
3248.000000	69.995732  
3247.000000	70.112393  
3246.000000	70.205458  
3245.000000	70.287473  
3244.000000	70.376499  
3243.000000	70.483998  
3242.000000	70.610209  
3241.000000	70.748262  
3240.000000	70.889090  
3239.000000	71.023560  
3238.000000	71.145156  
3237.000000	71.253591  
3236.000000	71.354595  
3235.000000	71.455420  
3234.000000	71.561907  
3233.000000	71.678802  
3232.000000	71.808476  
3231.000000	71.947763  
3230.000000	72.089369  
3229.000000	72.228115  
3228.000000	72.362656  
3227.000000	72.489946  
3226.000000	72.603416  
3225.000000	72.701327  
3224.000000	72.793845  
3223.000000	72.896750  
3222.000000	73.019021  
3221.000000	73.159516  
3220.000000	73.312500  
3219.000000	73.470204  
3218.000000	73.621158  
3217.000000	73.754006  
3216.000000	73.867622  
3215.000000	73.974793  
3214.000000	74.092618  
3213.000000	74.229966  
3212.000000	74.384856  
3211.000000	74.550491  
3210.000000	74.720159  
3209.000000	74.887648  
3208.000000	75.047300  
3207.000000	75.195875  
3206.000000	75.333756  
3205.000000	75.463681  
3204.000000	75.589093  
3203.000000	75.714722  
3202.000000	75.847867  
3201.000000	75.995083  
3200.000000	76.153780  
3199.000000	76.308189  
3198.000000	76.440096  
3197.000000	76.548469  
3196.000000	76.656333  
3195.000000	76.793158  
3194.000000	76.969212  
3193.000000	77.168823  
3192.000000	77.368023  
3191.000000	77.555485  
3190.000000	77.735125  
3189.000000	77.911891  
3188.000000	78.079835  
3187.000000	78.226291  
3186.000000	78.347418  
