PE IR                   SPECTRUM    ASCII       PEDS        1.60        
  -1
1012G~1.ASC
22/04/13
15:07:56.00
22/04/13
15:07:56.00
Admin

650.000000
4









SPECTRUM ONE,CPU32 MAIN 00.02.6000 25-JUNE-2003 12:00:00
MIR TGS
MIR
OPTKBR
68128
0.200000

4.000000
STRONG
RATIO
SPECTRUM
MAGNITUDE
UNIVERSAL ATR
DOUBLE

COMBINED


0


#HDR
-1
-1
#GR
CM-1
%T
0.00002384185791015625
0.0
4000.000000
-1.000000
3351
8
97.463292
54.992409
#DATA
4000.000000	96.688213 
3999.000000	96.693574 
3998.000000	96.713154 
3997.000000	96.731397 
3996.000000	96.736198 
3995.000000	96.729432 
3994.000000	96.725306 
3993.000000	96.737904 
3992.000000	96.768542 
3991.000000	96.803626 
3990.000000	96.826055 
3989.000000	96.831250 
3988.000000	96.831877 
3987.000000	96.844198 
3986.000000	96.868866 
3985.000000	96.888467 
3984.000000	96.886277 
3983.000000	96.866037 
3982.000000	96.849008 
3981.000000	96.850880 
3980.000000	96.865056 
3979.000000	96.870382 
3978.000000	96.853967 
3977.000000	96.824022 
3976.000000	96.801075 
3975.000000	96.797325 
3974.000000	96.805039 
3973.000000	96.804800 
3972.000000	96.784994 
3971.000000	96.753055 
3970.000000	96.728397 
3969.000000	96.726013 
3968.000000	96.745870 
3967.000000	96.775314 
3966.000000	96.800319 
3965.000000	96.817421 
3964.000000	96.836959 
3963.000000	96.872463 
3962.000000	96.923213 
3961.000000	96.967728 
3960.000000	96.980211 
3959.000000	96.954856 
3958.000000	96.912386 
3957.000000	96.881812 
3956.000000	96.875233 
3955.000000	96.879272 
3954.000000	96.868926 
3953.000000	96.831420 
3952.000000	96.777341 
3951.000000	96.731506 
3950.000000	96.712630 
3949.000000	96.719886 
3948.000000	96.736618 
3947.000000	96.745095 
3946.000000	96.740276 
3945.000000	96.732128 
3944.000000	96.736752 
3943.000000	96.762509 
3942.000000	96.802055 
3941.000000	96.839134 
3940.000000	96.862064 
3939.000000	96.868526 
3938.000000	96.862295 
3937.000000	96.849129 
3936.000000	96.833306 
3935.000000	96.816421 
3934.000000	96.798357 
3933.000000	96.783108 
3932.000000	96.780013 
3931.000000	96.794907 
3930.000000	96.820776 
3929.000000	96.841484 
3928.000000	96.847120 
3927.000000	96.844099 
3926.000000	96.847480 
3925.000000	96.862375 
3924.000000	96.879426 
3923.000000	96.891789 
3922.000000	96.901620 
3921.000000	96.906406 
3920.000000	96.896222 
3919.000000	96.870883 
3918.000000	96.848868 
3917.000000	96.848859 
3916.000000	96.870938 
3915.000000	96.903783 
3914.000000	96.939213 
3913.000000	96.969356 
3912.000000	96.981156 
3911.000000	96.964127 
3910.000000	96.921175 
3909.000000	96.866899 
3908.000000	96.816304 
3907.000000	96.779879 
3906.000000	96.762812 
3905.000000	96.766680 
3904.000000	96.784686 
3903.000000	96.806480 
3902.000000	96.831282 
3901.000000	96.864817 
3900.000000	96.901759 
3899.000000	96.922976 
3898.000000	96.917043 
3897.000000	96.895226 
3896.000000	96.876462 
3895.000000	96.866254 
3894.000000	96.860924 
3893.000000	96.860510 
3892.000000	96.866959 
3891.000000	96.869212 
3890.000000	96.854188 
3889.000000	96.839087 
3888.000000	96.851746 
3887.000000	96.891322 
3886.000000	96.923440 
3885.000000	96.911780 
3884.000000	96.863207 
3883.000000	96.827138 
3882.000000	96.831102 
3881.000000	96.854284 
3880.000000	96.859879 
3879.000000	96.832389 
3878.000000	96.793853 
3877.000000	96.777104 
3876.000000	96.789305 
3875.000000	96.811646 
3874.000000	96.816002 
3873.000000	96.794117 
3872.000000	96.776220 
3871.000000	96.796751 
3870.000000	96.841084 
3869.000000	96.855255 
3868.000000	96.831533 
3867.000000	96.825398 
3866.000000	96.867704 
3865.000000	96.929055 
3864.000000	96.970769 
3863.000000	96.989556 
3862.000000	97.003317 
3861.000000	97.014657 
3860.000000	97.017704 
3859.000000	97.019564 
3858.000000	97.028817 
3857.000000	97.038286 
3856.000000	97.029257 
3855.000000	97.011813 
3854.000000	97.028326 
3853.000000	97.056970 
3852.000000	97.033540 
3851.000000	96.991034 
3850.000000	96.981417 
3849.000000	96.985042 
3848.000000	96.968595 
3847.000000	96.932762 
3846.000000	96.900512 
3845.000000	96.883411 
3844.000000	96.877201 
3843.000000	96.874850 
3842.000000	96.873751 
3841.000000	96.875031 
3840.000000	96.879111 
3839.000000	96.882615 
3838.000000	96.883322 
3837.000000	96.883441 
3836.000000	96.887399 
3835.000000	96.902134 
3834.000000	96.928911 
3833.000000	96.962731 
3832.000000	96.993746 
3831.000000	97.008105 
3830.000000	97.000436 
3829.000000	96.980900 
3828.000000	96.964101 
3827.000000	96.955026 
3826.000000	96.944892 
3825.000000	96.928046 
3824.000000	96.922224 
3823.000000	96.953539 
3822.000000	97.023895 
3821.000000	97.086481 
3820.000000	97.081077 
3819.000000	97.030978 
3818.000000	97.008385 
3817.000000	97.029423 
3816.000000	97.044684 
3815.000000	97.000416 
3814.000000	96.916080 
3813.000000	96.863930 
3812.000000	96.868021 
3811.000000	96.890212 
3810.000000	96.897985 
3809.000000	96.900129 
3808.000000	96.923228 
3807.000000	96.962838 
3806.000000	96.984090 
3805.000000	96.987168 
3804.000000	97.012563 
3803.000000	97.069853 
3802.000000	97.119246 
3801.000000	97.100202 
3800.000000	96.998436 
3799.000000	96.891035 
3798.000000	96.848625 
3797.000000	96.862038 
3796.000000	96.883877 
3795.000000	96.886195 
3794.000000	96.878122 
3793.000000	96.875816 
3792.000000	96.875134 
3791.000000	96.864819 
3790.000000	96.847935 
3789.000000	96.834279 
3788.000000	96.826080 
3787.000000	96.819683 
3786.000000	96.813724 
3785.000000	96.807253 
3784.000000	96.797513 
3783.000000	96.788883 
3782.000000	96.798355 
3781.000000	96.837338 
3780.000000	96.891997 
3779.000000	96.928307 
3778.000000	96.924766 
3777.000000	96.895615 
3776.000000	96.868876 
3775.000000	96.852677 
3774.000000	96.835439 
3773.000000	96.813623 
3772.000000	96.803722 
3771.000000	96.822114 
3770.000000	96.857787 
3769.000000	96.883057 
3768.000000	96.893936 
3767.000000	96.911996 
3766.000000	96.945365 
3765.000000	96.973474 
3764.000000	96.971670 
3763.000000	96.941847 
3762.000000	96.904842 
3761.000000	96.873519 
3760.000000	96.854658 
3759.000000	96.858648 
3758.000000	96.891009 
3757.000000	96.938841 
3756.000000	96.980360 
3755.000000	97.009766 
3754.000000	97.033582 
3753.000000	97.055218 
3752.000000	97.075344 
3751.000000	97.098140 
3750.000000	97.115386 
3749.000000	97.104335 
3748.000000	97.062337 
3747.000000	97.013457 
3746.000000	96.982488 
3745.000000	96.975592 
3744.000000	96.943926 
3743.000000	96.844670 
3742.000000	96.753942 
3741.000000	96.746250 
3740.000000	96.785342 
3739.000000	96.803570 
3738.000000	96.785567 
3737.000000	96.767354 
3736.000000	96.777935 
3735.000000	96.816176 
3734.000000	96.870136 
3733.000000	96.927162 
3732.000000	96.957875 
3731.000000	96.934752 
3730.000000	96.871889 
3729.000000	96.809801 
3728.000000	96.771439 
3727.000000	96.752138 
3726.000000	96.743591 
3725.000000	96.756757 
3724.000000	96.810627 
3723.000000	96.896148 
3722.000000	96.975126 
3721.000000	97.019393 
3720.000000	97.035823 
3719.000000	97.046006 
3718.000000	97.056386 
3717.000000	97.053416 
3716.000000	97.025620 
3715.000000	96.982632 
3714.000000	96.940449 
3713.000000	96.904849 
3712.000000	96.875121 
3711.000000	96.852995 
3710.000000	96.847463 
3709.000000	96.866272 
3708.000000	96.902210 
3707.000000	96.936016 
3706.000000	96.951935 
3705.000000	96.950298 
3704.000000	96.943723 
3703.000000	96.945084 
3702.000000	96.953525 
3701.000000	96.949265 
3700.000000	96.916953 
3699.000000	96.871454 
3698.000000	96.845071 
3697.000000	96.851702 
3696.000000	96.871437 
3695.000000	96.875783 
3694.000000	96.858994 
3693.000000	96.837304 
3692.000000	96.834565 
3691.000000	96.871281 
3690.000000	96.950269 
3689.000000	97.041297 
3688.000000	97.096045 
3687.000000	97.097406 
3686.000000	97.070083 
3685.000000	97.036445 
3684.000000	96.995651 
3683.000000	96.947418 
3682.000000	96.911787 
3681.000000	96.913478 
3680.000000	96.947662 
3679.000000	96.983779 
3678.000000	97.003210 
3677.000000	97.016868 
3676.000000	97.035969 
3675.000000	97.025750 
3674.000000	96.964481 
3673.000000	96.913186 
3672.000000	96.919963 
3671.000000	96.960714 
3670.000000	96.994058 
3669.000000	96.998630 
3668.000000	96.989933 
3667.000000	96.994807 
3666.000000	97.005708 
3665.000000	97.000619 
3664.000000	96.977287 
3663.000000	96.949704 
3662.000000	96.927796 
3661.000000	96.911146 
3660.000000	96.899113 
3659.000000	96.902670 
3658.000000	96.935813 
3657.000000	96.994292 
3656.000000	97.042564 
3655.000000	97.046405 
3654.000000	97.017733 
3653.000000	96.986741 
3652.000000	96.954727 
3651.000000	96.908144 
3650.000000	96.857955 
3649.000000	96.828751 
3648.000000	96.828740 
3647.000000	96.847995 
3646.000000	96.874012 
3645.000000	96.901636 
3644.000000	96.929294 
3643.000000	96.950614 
3642.000000	96.957925 
3641.000000	96.951343 
3640.000000	96.938099 
3639.000000	96.921158 
3638.000000	96.892558 
3637.000000	96.851921 
3636.000000	96.820857 
3635.000000	96.823051 
3634.000000	96.850832 
3633.000000	96.871152 
3632.000000	96.867869 
3631.000000	96.857642 
3630.000000	96.874851 
3629.000000	96.927747 
3628.000000	96.965982 
3627.000000	96.963124 
3626.000000	96.953661 
3625.000000	96.952028 
3624.000000	96.943193 
3623.000000	96.927024 
3622.000000	96.922206 
3621.000000	96.935662 
3620.000000	96.947242 
3619.000000	96.933655 
3618.000000	96.898554 
3617.000000	96.868978 
3616.000000	96.862473 
3615.000000	96.868416 
3614.000000	96.863832 
3613.000000	96.840581 
3612.000000	96.816432 
3611.000000	96.819137 
3610.000000	96.857793 
3609.000000	96.911362 
3608.000000	96.949640 
3607.000000	96.961340 
3606.000000	96.958810 
3605.000000	96.958910 
3604.000000	96.969150 
3603.000000	96.990814 
3602.000000	97.019083 
3601.000000	97.038934 
3600.000000	97.033274 
3599.000000	97.003054 
3598.000000	96.967173 
3597.000000	96.939235 
3596.000000	96.918026 
3595.000000	96.902522 
3594.000000	96.900738 
3593.000000	96.918686 
3592.000000	96.948783 
3591.000000	96.969848 
3590.000000	96.965019 
3589.000000	96.938757 
3588.000000	96.912410 
3587.000000	96.894963 
3586.000000	96.875827 
3585.000000	96.849320 
3584.000000	96.821879 
3583.000000	96.802604 
3582.000000	96.798689 
3581.000000	96.814447 
3580.000000	96.849099 
3579.000000	96.895600 
3578.000000	96.939266 
3577.000000	96.960684 
3576.000000	96.948717 
3575.000000	96.914119 
3574.000000	96.885510 
3573.000000	96.884074 
3572.000000	96.903143 
3571.000000	96.913678 
3570.000000	96.890773 
3569.000000	96.840771 
3568.000000	96.801935 
3567.000000	96.808137 
3566.000000	96.852059 
3565.000000	96.900452 
3564.000000	96.926529 
3563.000000	96.922000 
3562.000000	96.895215 
3561.000000	96.863523 
3560.000000	96.841860 
3559.000000	96.837665 
3558.000000	96.853817 
3557.000000	96.888470 
3556.000000	96.928851 
3555.000000	96.951588 
3554.000000	96.937414 
3553.000000	96.888208 
3552.000000	96.827709 
3551.000000	96.782681 
3550.000000	96.764841 
3549.000000	96.768716 
3548.000000	96.781795 
3547.000000	96.796906 
3546.000000	96.816109 
3545.000000	96.842416 
3544.000000	96.872299 
3543.000000	96.898710 
3542.000000	96.919106 
3541.000000	96.937367 
3540.000000	96.957302 
3539.000000	96.975194 
3538.000000	96.981281 
3537.000000	96.970912 
3536.000000	96.952581 
3535.000000	96.942140 
3534.000000	96.947702 
3533.000000	96.963434 
3532.000000	96.977467 
3531.000000	96.982843 
3530.000000	96.979122 
3529.000000	96.965912 
3528.000000	96.941683 
3527.000000	96.909640 
3526.000000	96.879305 
3525.000000	96.857269 
3524.000000	96.840094 
3523.000000	96.821626 
3522.000000	96.805274 
3521.000000	96.802402 
3520.000000	96.817653 
3519.000000	96.840459 
3518.000000	96.853444 
3517.000000	96.847840 
3516.000000	96.827101 
3515.000000	96.797980 
3514.000000	96.764964 
3513.000000	96.736996 
3512.000000	96.732118 
3511.000000	96.764119 
3510.000000	96.822984 
3509.000000	96.876339 
3508.000000	96.896683 
3507.000000	96.884006 
3506.000000	96.858453 
3505.000000	96.836425 
3504.000000	96.818570 
3503.000000	96.799564 
3502.000000	96.782869 
3501.000000	96.780231 
3500.000000	96.798507 
3499.000000	96.831930 
3498.000000	96.867428 
3497.000000	96.894222 
3496.000000	96.906868 
3495.000000	96.901804 
3494.000000	96.876043 
3493.000000	96.832872 
3492.000000	96.786823 
3491.000000	96.757731 
3490.000000	96.755956 
3489.000000	96.774238 
3488.000000	96.795448 
3487.000000	96.808066 
3486.000000	96.813127 
3485.000000	96.817091 
3484.000000	96.821036 
3483.000000	96.817543 
3482.000000	96.797546 
3481.000000	96.761263 
3480.000000	96.723316 
3479.000000	96.704299 
3478.000000	96.713921 
3477.000000	96.741937 
3476.000000	96.767704 
3475.000000	96.779335 
3474.000000	96.780852 
3473.000000	96.781100 
3472.000000	96.782032 
3471.000000	96.781704 
3470.000000	96.783496 
3469.000000	96.794383 
3468.000000	96.812657 
3467.000000	96.823051 
3466.000000	96.809333 
3465.000000	96.771303 
3464.000000	96.727581 
3463.000000	96.701539 
3462.000000	96.703437 
3461.000000	96.722816 
3460.000000	96.736497 
3459.000000	96.727891 
3458.000000	96.703060 
3457.000000	96.688331 
3456.000000	96.707684 
3455.000000	96.759434 
3454.000000	96.816961 
3453.000000	96.852965 
3452.000000	96.861465 
3451.000000	96.856754 
3450.000000	96.854202 
3449.000000	96.854977 
3448.000000	96.849739 
3447.000000	96.835953 
3446.000000	96.828003 
3445.000000	96.845401 
3444.000000	96.890016 
3443.000000	96.938494 
3442.000000	96.961583 
3441.000000	96.950377 
3440.000000	96.920260 
3439.000000	96.892128 
3438.000000	96.876530 
3437.000000	96.876004 
3436.000000	96.892134 
3435.000000	96.922479 
3434.000000	96.955101 
3433.000000	96.975863 
3432.000000	96.982094 
3431.000000	96.983062 
3430.000000	96.985319 
3429.000000	96.982612 
3428.000000	96.965029 
3427.000000	96.934358 
3426.000000	96.904904 
3425.000000	96.889130 
3424.000000	96.885911 
3423.000000	96.883921 
3422.000000	96.874688 
3421.000000	96.861908 
3420.000000	96.858375 
3419.000000	96.873153 
3418.000000	96.901584 
3417.000000	96.928846 
3416.000000	96.942713 
3415.000000	96.940652 
3414.000000	96.925017 
3413.000000	96.897514 
3412.000000	96.863357 
3411.000000	96.835932 
3410.000000	96.828348 
3409.000000	96.839743 
3408.000000	96.856319 
3407.000000	96.867347 
3406.000000	96.874222 
3405.000000	96.883214 
3404.000000	96.897207 
3403.000000	96.917679 
3402.000000	96.946218 
3401.000000	96.976877 
3400.000000	96.993282 
3399.000000	96.983633 
3398.000000	96.958595 
3397.000000	96.945127 
3396.000000	96.959070 
3395.000000	96.988537 
3394.000000	97.006402 
3393.000000	96.995087 
3392.000000	96.957845 
3391.000000	96.911415 
3390.000000	96.874142 
3389.000000	96.859330 
3388.000000	96.871025 
3387.000000	96.900140 
3386.000000	96.926091 
3385.000000	96.928682 
3384.000000	96.903177 
3383.000000	96.864666 
3382.000000	96.835908 
3381.000000	96.829068 
3380.000000	96.838326 
3379.000000	96.849558 
3378.000000	96.856421 
3377.000000	96.865426 
3376.000000	96.885607 
3375.000000	96.915208 
3374.000000	96.940720 
3373.000000	96.948593 
3372.000000	96.936836 
3371.000000	96.915571 
3370.000000	96.898554 
3369.000000	96.894252 
3368.000000	96.901463 
3367.000000	96.910374 
3366.000000	96.908892 
3365.000000	96.891990 
3364.000000	96.866537 
3363.000000	96.845502 
3362.000000	96.835611 
3361.000000	96.830691 
3360.000000	96.818316 
3359.000000	96.792954 
3358.000000	96.761959 
3357.000000	96.738713 
3356.000000	96.731608 
3355.000000	96.740862 
3354.000000	96.763725 
3353.000000	96.797733 
3352.000000	96.836980 
3351.000000	96.870018 
3350.000000	96.888070 
3349.000000	96.895388 
3348.000000	96.905431 
3347.000000	96.924408 
3346.000000	96.943588 
3345.000000	96.951227 
3344.000000	96.946726 
3343.000000	96.936949 
3342.000000	96.922431 
3341.000000	96.897338 
3340.000000	96.863856 
3339.000000	96.836385 
3338.000000	96.825794 
3337.000000	96.826457 
3336.000000	96.825769 
3335.000000	96.822325 
3334.000000	96.826304 
3333.000000	96.843500 
3332.000000	96.866879 
3331.000000	96.884374 
3330.000000	96.887741 
3329.000000	96.872310 
3328.000000	96.836930 
3327.000000	96.790869 
3326.000000	96.756020 
3325.000000	96.753633 
3324.000000	96.786921 
3323.000000	96.839313 
3322.000000	96.889120 
3321.000000	96.923019 
3320.000000	96.937300 
3319.000000	96.932948 
3318.000000	96.914041 
3317.000000	96.888788 
3316.000000	96.867315 
3315.000000	96.855900 
3314.000000	96.853290 
3313.000000	96.853044 
3312.000000	96.849513 
3311.000000	96.841762 
3310.000000	96.832732 
3309.000000	96.826438 
3308.000000	96.827205 
3307.000000	96.839862 
3306.000000	96.866398 
3305.000000	96.900187 
3304.000000	96.926309 
3303.000000	96.931624 
3302.000000	96.915109 
3301.000000	96.887157 
3300.000000	96.860657 
3299.000000	96.845864 
3298.000000	96.850402 
3297.000000	96.874930 
3296.000000	96.905108 
3295.000000	96.915910 
3294.000000	96.893679 
3293.000000	96.852995 
3292.000000	96.823711 
3291.000000	96.819303 
3290.000000	96.825157 
3289.000000	96.820719 
3288.000000	96.804640 
3287.000000	96.791620 
3286.000000	96.790681 
3285.000000	96.796901 
3284.000000	96.803424 
3283.000000	96.810415 
3282.000000	96.818190 
3281.000000	96.820424 
3280.000000	96.812091 
3279.000000	96.799562 
3278.000000	96.794698 
3277.000000	96.800371 
3276.000000	96.809018 
3275.000000	96.815935 
3274.000000	96.826339 
3273.000000	96.845404 
3272.000000	96.867129 
3271.000000	96.879358 
3270.000000	96.878343 
3269.000000	96.872873 
3268.000000	96.872695 
3267.000000	96.876532 
3266.000000	96.874186 
3265.000000	96.859120 
3264.000000	96.835825 
3263.000000	96.813175 
3262.000000	96.792512 
3261.000000	96.766636 
3260.000000	96.732368 
3259.000000	96.700375 
3258.000000	96.687991 
3257.000000	96.702374 
3256.000000	96.733992 
3255.000000	96.767076 
3254.000000	96.792189 
3253.000000	96.807205 
3252.000000	96.812064 
3251.000000	96.809135 
3250.000000	96.806568 
3249.000000	96.814259 
3248.000000	96.834753 
3247.000000	96.862265 
3246.000000	96.891766 
3245.000000	96.923782 
3244.000000	96.956888 
3243.000000	96.979882 
3242.000000	96.977505 
3241.000000	96.944511 
3240.000000	96.892128 
3239.000000	96.841174 
3238.000000	96.809873 
3237.000000	96.804593 
3236.000000	96.816765 
3235.000000	96.829183 
3234.000000	96.830251 
3233.000000	96.823315 
3232.000000	96.819350 
3231.000000	96.821809 
3230.000000	96.824278 
3229.000000	96.823509 
3228.000000	96.826978 
3227.000000	96.842104 
3226.000000	96.862772 
3225.000000	96.873028 
3224.000000	96.862802 
3223.000000	96.835524 
3222.000000	96.802130 
3221.000000	96.773476 
3220.000000	96.757903 
3219.000000	96.758203 
3218.000000	96.767210 
3217.000000	96.771513 
3216.000000	96.764861 
3215.000000	96.756329 
3214.000000	96.760130 
3213.000000	96.776290 
3212.000000	96.785610 
3211.000000	96.768340 
3210.000000	96.728678 
3209.000000	96.697466 
3208.000000	96.706377 
3207.000000	96.758060 
3206.000000	96.822506 
3205.000000	96.862494 
3204.000000	96.862065 
3203.000000	96.832572 
3202.000000	96.797269 
3201.000000	96.774441 
3200.000000	96.771865 
3199.000000	96.788850 
3198.000000	96.818734 
3197.000000	96.850880 
3196.000000	96.873967 
3195.000000	96.880749 
3194.000000	96.872792 
3193.000000	96.861777 
3192.000000	96.862976 
3191.000000	96.882793 
3190.000000	96.911309 
3189.000000	96.928743 
3188.000000	96.920235 
3187.000000	96.885176 
3186.000000	96.835581 
3185.000000	96.788307 
3184.000000	96.756268 
3183.000000	96.741702 
3182.000000	96.736882 
3181.000000	96.733728 
3180.000000	96.732570 
3179.000000	96.739399 
3178.000000	96.755843 
3177.000000	96.776310 
3176.000000	96.794696 
3175.000000	96.808387 
3174.000000	96.814461 
3173.000000	96.808057 
3172.000000	96.788394 
3171.000000	96.762306 
3170.000000	96.737600 
3169.000000	96.716154 
3168.000000	96.697887 
3167.000000	96.688221 
3166.000000	96.694747 
3165.000000	96.715807 
3164.000000	96.737541 
3163.000000	96.745100 
3162.000000	96.735462 
3161.000000	96.718395 
3160.000000	96.706652 
3159.000000	96.706621 
3158.000000	96.717444 
3157.000000	96.736778 
3156.000000	96.764483 
3155.000000	96.798495 
3154.000000	96.829064 
3153.000000	96.843189 
3152.000000	96.837685 
3151.000000	96.823318 
